# Potentiometer (unbelastet)
# Skala [0-10], Ausgangsspannung U [V]
0.00 0.000 0.001
0.50 0.223 0.001
1.00 0.450 0.001
1.50 0.674 0.001
2.00 0.898 0.001
2.50 1.123 0.001
3.00 1.350 0.001
3.50 1.573 0.001
4.00 1.798 0.001
4.50 2.022 0.001
5.00 2.247 0.001
5.50 2.472 0.001
6.00 2.697 0.001
6.50 2.922 0.001
7.00 3.147 0.001
7.50 3.371 0.001
8.00 3.595 0.001
8.50 3.821 0.001
9.00 4.046 0.001
9.50 4.270 0.001
10.00 4.493 0.001
